Instrument         :,HElIOSb,072806,v2.04
Data Type          :,Scan
Scan Type          :,Standard
ID                 :,
Mode               :,Abs
Start Wavelength   :,350.0
Stop Wavelength    :,800.0
Bandwidth          :,2.0
Scan Speed         :,1200.0
Data Interval      :,1.0
Peak Table         :,Off
Lamp Change        :,325.0
Operator           :,
Smoothing          :,None
Reference          :,User Baseline
Number of Points   :,451
Date and Time      :,26-03-18,16:40:28

Wavelength,%T,Abs
350.0,3.3922,1.4695
351.0,3.3200,1.4789
352.0,3.2906,1.4827
353.0,3.2237,1.4917
354.0,3.1720,1.4987
355.0,3.1362,1.5037
356.0,3.0645,1.5137
357.0,2.9927,1.5240
358.0,2.9291,1.5334
359.0,2.8555,1.5444
360.0,2.8067,1.5519
361.0,2.7581,1.5595
362.0,2.7061,1.5677
363.0,2.6653,1.5743
364.0,2.6206,1.5817
365.0,2.5889,1.5869
366.0,2.5627,1.5913
367.0,2.5571,1.5923
368.0,2.5001,1.6021
369.0,2.4684,1.6077
370.0,2.4413,1.6125
371.0,2.4146,1.6172
372.0,2.3731,1.6248
373.0,2.3290,1.6329
374.0,2.2415,1.6496
375.0,2.1851,1.6606
376.0,2.1329,1.6711
377.0,2.0507,1.6882
378.0,1.9820,1.7030
379.0,1.9070,1.7197
380.0,1.8004,1.7447
381.0,1.7260,1.7630
382.0,1.6679,1.7779
383.0,1.5980,1.7964
384.0,1.5279,1.8160
385.0,1.4831,1.8289
386.0,1.4241,1.8465
387.0,1.3757,1.8615
388.0,1.3487,1.8702
389.0,1.3097,1.8829
390.0,1.2693,1.8965
391.0,1.2063,1.9186
392.0,1.1749,1.9301
393.0,1.1017,1.9580
394.0,1.0704,1.9705
395.0,1.0265,1.9887
396.0,0.9782,2.0096
397.0,0.9369,2.0284
398.0,0.9015,2.0451
399.0,0.8601,2.0655
400.0,0.8368,2.0774
401.0,0.8020,2.0958
402.0,0.7742,2.1112
403.0,0.7538,2.1227
404.0,0.7263,2.1389
405.0,0.7064,2.1509
406.0,0.6872,2.1629
407.0,0.6773,2.1692
408.0,0.6618,2.1793
409.0,0.6502,2.1870
410.0,0.6472,2.1889
411.0,0.6418,2.1926
412.0,0.6304,2.2004
413.0,0.6146,2.2114
414.0,0.6090,2.2154
415.0,0.5985,2.2230
416.0,0.5887,2.2301
417.0,0.5891,2.2298
418.0,0.5779,2.2381
419.0,0.5682,2.2455
420.0,0.5602,2.2517
421.0,0.5560,2.2549
422.0,0.5489,2.2606
423.0,0.5510,2.2589
424.0,0.5480,2.2612
425.0,0.5468,2.2622
426.0,0.5450,2.2636
427.0,0.5466,2.2624
428.0,0.5466,2.2624
429.0,0.5468,2.2622
430.0,0.5459,2.2629
431.0,0.5460,2.2628
432.0,0.5439,2.2645
433.0,0.5484,2.2609
434.0,0.5518,2.2582
435.0,0.5508,2.2590
436.0,0.5556,2.2552
437.0,0.5628,2.2496
438.0,0.5672,2.2462
439.0,0.5763,2.2393
440.0,0.5796,2.2368
441.0,0.5852,2.2327
442.0,0.5935,2.2266
443.0,0.6038,2.2191
444.0,0.6131,2.2125
445.0,0.6225,2.2059
446.0,0.6342,2.1978
447.0,0.6503,2.1869
448.0,0.6587,2.1814
449.0,0.6694,2.1744
450.0,0.6786,2.1684
451.0,0.6926,2.1596
452.0,0.7035,2.1528
453.0,0.7199,2.1427
454.0,0.7356,2.1334
455.0,0.7499,2.1250
456.0,0.7772,2.1095
457.0,0.7960,2.0991
458.0,0.8258,2.0831
459.0,0.8523,2.0695
460.0,0.8945,2.0485
461.0,0.9309,2.0312
462.0,0.9660,2.0150
463.0,1.0125,1.9947
464.0,1.0664,1.9721
465.0,1.1201,1.9508
466.0,1.1917,1.9239
467.0,1.2617,1.8991
468.0,1.3336,1.8750
469.0,1.4101,1.8508
470.0,1.4831,1.8289
471.0,1.5701,1.8041
472.0,1.6422,1.7847
473.0,1.6951,1.7709
474.0,1.7448,1.7583
475.0,1.7915,1.7469
476.0,1.8627,1.7300
477.0,1.9453,1.7111
478.0,2.0140,1.6960
479.0,2.0979,1.6783
480.0,2.2089,1.6559
481.0,2.3189,1.6348
482.0,2.4766,1.6062
483.0,2.6346,1.5794
484.0,2.8000,1.5529
485.0,2.9989,1.5231
486.0,3.1780,1.4979
487.0,3.3478,1.4753
488.0,3.5428,1.4507
489.0,3.6935,1.4326
490.0,3.8720,1.4120
491.0,4.0526,1.3923
492.0,4.2194,1.3748
493.0,4.3915,1.3574
494.0,4.5624,1.3408
495.0,4.7160,1.3264
496.0,4.9233,1.3078
497.0,5.1143,1.2912
498.0,5.3220,1.2740
499.0,5.6057,1.2514
500.0,5.8758,1.2309
501.0,6.1769,1.2093
502.0,6.4377,1.1913
503.0,6.7756,1.1691
504.0,7.0423,1.1523
505.0,7.2852,1.1376
506.0,7.4556,1.1276
507.0,7.5917,1.1197
508.0,7.6549,1.1161
509.0,7.6735,1.1151
510.0,7.6738,1.1150
511.0,7.6703,1.1153
512.0,7.6766,1.1149
513.0,7.6938,1.1139
514.0,7.7271,1.1120
515.0,7.7724,1.1095
516.0,7.8301,1.1062
517.0,7.8709,1.1040
518.0,7.9275,1.1009
519.0,7.9879,1.0976
520.0,8.0649,1.0934
521.0,8.1174,1.0906
522.0,8.1595,1.0884
523.0,8.1800,1.0873
524.0,8.1741,1.0876
525.0,8.1205,1.0905
526.0,8.0274,1.0955
527.0,7.8877,1.1031
528.0,7.6917,1.1140
529.0,7.5047,1.1247
530.0,7.2973,1.1369
531.0,7.0473,1.1520
532.0,6.8486,1.1644
533.0,6.6663,1.1761
534.0,6.4995,1.1871
535.0,6.3795,1.1952
536.0,6.2874,1.2015
537.0,6.2278,1.2057
538.0,6.1911,1.2083
539.0,6.1681,1.2099
540.0,6.1596,1.2105
541.0,6.1521,1.2110
542.0,6.1475,1.2113
543.0,6.1264,1.2128
544.0,6.0949,1.2150
545.0,6.0248,1.2201
546.0,5.9084,1.2286
547.0,5.7506,1.2403
548.0,5.5712,1.2541
549.0,5.3213,1.2740
550.0,5.0779,1.2943
551.0,4.8117,1.3177
552.0,4.5553,1.3415
553.0,4.3469,1.3618
554.0,4.1424,1.3828
555.0,3.9996,1.3980
556.0,3.8984,1.4092
557.0,3.8308,1.4168
558.0,3.8095,1.4192
559.0,3.8082,1.4193
560.0,3.8268,1.4172
561.0,3.8784,1.4113
562.0,3.9713,1.4011
563.0,4.0680,1.3906
564.0,4.2140,1.3753
565.0,4.3647,1.3601
566.0,4.5278,1.3441
567.0,4.6671,1.3310
568.0,4.7211,1.3259
569.0,4.6682,1.3309
570.0,4.5287,1.3440
571.0,4.3208,1.3645
572.0,4.0383,1.3939
573.0,3.7268,1.4287
574.0,3.4257,1.4652
575.0,3.1506,1.5017
576.0,2.8855,1.5399
577.0,2.6780,1.5723
578.0,2.5054,1.6012
579.0,2.3902,1.6217
580.0,2.5636,1.5912
581.0,2.5024,1.6017
582.0,2.4548,1.6101
583.0,2.4298,1.6145
584.0,2.4454,1.6117
585.0,2.4978,1.6025
586.0,2.5921,1.5864
587.0,2.7724,1.5573
588.0,2.9819,1.5256
589.0,3.2943,1.4823
590.0,3.6361,1.4394
591.0,4.0424,1.3934
592.0,4.4681,1.3499
593.0,4.8515,1.3141
594.0,5.2934,1.2763
595.0,5.6267,1.2498
596.0,5.9141,1.2281
597.0,6.1199,1.2133
598.0,6.2668,1.2030
599.0,6.3259,1.1989
600.0,6.3333,1.1984
601.0,6.3068,1.2002
602.0,6.2474,1.2043
603.0,6.1468,1.2114
604.0,5.9738,1.2237
605.0,5.7589,1.2396
606.0,5.5332,1.2571
607.0,5.2773,1.2776
608.0,5.0238,1.2990
609.0,4.7250,1.3256
610.0,4.4719,1.3495
611.0,4.2190,1.3748
612.0,4.0268,1.3950
613.0,3.8070,1.4195
614.0,3.5998,1.4437
615.0,3.4172,1.4663
616.0,3.2374,1.4899
617.0,3.0562,1.5149
618.0,2.8532,1.5447
619.0,2.7030,1.5682
620.0,2.5325,1.5965
621.0,2.4366,1.6133
622.0,2.2627,1.6455
623.0,2.1155,1.6747
624.0,1.9489,1.7103
625.0,1.7962,1.7457
626.0,1.6590,1.7803
627.0,1.4801,1.8297
628.0,1.3595,1.8667
629.0,1.2072,1.9182
630.0,1.1059,1.9563
631.0,1.0072,1.9969
632.0,0.9259,2.0335
633.0,0.8698,2.0606
634.0,0.8313,2.0803
635.0,0.8073,2.0930
636.0,0.8021,2.0958
637.0,0.8088,2.0921
638.0,0.8320,2.0799
639.0,0.8710,2.0600
640.0,0.9211,2.0358
641.0,0.9799,2.0088
642.0,1.0480,1.9796
643.0,1.1340,1.9454
644.0,1.2563,1.9010
645.0,1.4519,1.8381
646.0,1.6638,1.7790
647.0,2.0525,1.6878
648.0,2.5168,1.5992
649.0,3.1110,1.5072
650.0,4.0431,1.3933
651.0,5.1971,1.2842
652.0,6.4068,1.1933
653.0,7.8285,1.1063
654.0,9.3365,1.0299
655.0,11.0070,0.9584
656.0,12.6143,0.8992
657.0,14.2952,0.8449
658.0,15.7967,0.8015
659.0,17.0952,0.7672
660.0,18.2836,0.7380
661.0,19.3707,0.7129
662.0,20.3237,0.6921
663.0,21.0121,0.6776
664.0,21.9253,0.6591
665.0,22.8662,0.6408
666.0,23.7044,0.6253
667.0,24.5288,0.6104
668.0,25.4137,0.5950
669.0,26.1641,0.5823
670.0,26.9863,0.5689
671.0,27.7060,0.5574
672.0,28.4339,0.5462
673.0,28.8885,0.5393
674.0,29.5186,0.5299
675.0,30.0517,0.5221
676.0,30.4929,0.5158
677.0,30.9869,0.5088
678.0,31.3457,0.5038
679.0,31.8550,0.4968
680.0,32.1511,0.4928
681.0,32.4138,0.4893
682.0,32.7563,0.4847
683.0,33.0152,0.4813
684.0,33.3489,0.4769
685.0,33.6249,0.4733
686.0,34.0291,0.4682
687.0,34.3784,0.4637
688.0,34.7238,0.4594
689.0,35.2363,0.4530
690.0,35.5327,0.4494
691.0,35.9819,0.4439
692.0,36.3963,0.4389
693.0,36.6992,0.4354
694.0,37.1307,0.4302
695.0,37.4056,0.4271
696.0,37.6788,0.4239
697.0,38.0231,0.4200
698.0,38.2099,0.4178
699.0,38.5312,0.4142
700.0,38.7137,0.4122
701.0,38.8338,0.4108
702.0,39.0568,0.4083
703.0,39.1857,0.4069
704.0,39.2811,0.4058
705.0,39.4892,0.4035
706.0,39.6342,0.4019
707.0,39.7169,0.4010
708.0,39.8893,0.3991
709.0,40.0651,0.3972
710.0,40.1376,0.3965
711.0,40.3963,0.3937
712.0,40.4687,0.3929
713.0,40.6368,0.3911
714.0,40.8404,0.3889
715.0,40.9431,0.3878
716.0,41.1800,0.3853
717.0,41.3474,0.3836
718.0,41.4697,0.3823
719.0,41.7366,0.3795
720.0,41.8890,0.3779
721.0,42.0442,0.3763
722.0,42.2213,0.3745
723.0,42.4217,0.3724
724.0,42.5607,0.3710
725.0,42.7746,0.3688
726.0,43.0596,0.3659
727.0,43.3073,0.3634
728.0,43.5883,0.3606
729.0,43.8777,0.3578
730.0,44.1363,0.3552
731.0,44.4300,0.3524
732.0,44.6377,0.3503
733.0,44.9299,0.3475
734.0,45.1022,0.3458
735.0,45.2488,0.3444
736.0,45.4633,0.3424
737.0,45.5933,0.3411
738.0,45.6399,0.3406
739.0,45.8132,0.3390
740.0,45.9236,0.3380
741.0,45.9020,0.3382
742.0,45.8793,0.3384
743.0,45.9735,0.3375
744.0,46.0857,0.3364
745.0,46.0159,0.3371
746.0,45.9849,0.3374
747.0,46.0931,0.3363
748.0,46.0746,0.3365
749.0,45.9148,0.3381
750.0,46.0309,0.3369
751.0,45.9111,0.3381
752.0,45.7654,0.3394
753.0,45.9093,0.3381
754.0,45.7315,0.3398
755.0,45.5979,0.3411
756.0,45.7640,0.3394
757.0,45.6686,0.3404
758.0,45.4961,0.3421
759.0,45.6516,0.3405
760.0,45.7399,0.3397
761.0,45.6284,0.3408
762.0,45.5054,0.3420
763.0,45.5917,0.3411
764.0,45.7992,0.3391
765.0,45.8166,0.3390
766.0,45.6830,0.3402
767.0,45.8689,0.3385
768.0,46.1104,0.3362
769.0,46.0156,0.3371
770.0,46.2610,0.3348
771.0,46.6028,0.3316
772.0,46.5222,0.3323
773.0,46.7265,0.3304
774.0,47.1773,0.3262
775.0,47.2031,0.3260
776.0,47.2753,0.3254
777.0,47.7707,0.3208
778.0,48.0305,0.3185
779.0,47.9521,0.3192
780.0,48.0311,0.3185
781.0,48.4994,0.3142
782.0,48.8081,0.3115
783.0,48.7453,0.3120
784.0,48.8407,0.3112
785.0,49.2756,0.3074
786.0,49.5517,0.3049
787.0,49.4567,0.3058
788.0,49.8711,0.3021
789.0,50.2270,0.2991
790.0,50.0811,0.3003
791.0,50.3353,0.2981
792.0,50.7501,0.2946
793.0,50.6232,0.2957
794.0,50.6351,0.2956
795.0,50.9822,0.2926
796.0,51.0980,0.2915
797.0,50.7992,0.2942
798.0,50.8463,0.2937
799.0,51.0419,0.2921
800.0,51.1992,0.2908
